VAMAS Surface Chemical Analysis Standard Data Transfer Format 1988 May 4
Not Specified
Kratos Axis
Not Specified
/d=/data/20170705/2017006144/B4.dset
3
Casa Info Follows
0
SourceAnalyserAngle: Not Specified
MAP
REGULAR
4
2
32768
32768
1
Etch Time
s
0
0
0
0
4
wide/2
Not Specified
2017
7
4
11
5
2
0
21
Casa Info Follows
1
Calib M = 282.45 A = 284.6 BE ADD
6
annot text peak Data 1202.54 1946 RGB(0,0,0) Font(14,18,0,0,Times New Roman) Vertical
C 1s
annot text peak Data 510.54 3380 RGB(0,0,0) Font(14,18,0,0,Times New Roman) Vertical
O KLL
annot text peak Data 953.54 1864 RGB(0,0,0) Font(14,18,0,0,Times New Roman) Vertical
O 1s
annot text peak Data 642 2978 RGB(0,0,0) Font(14,18,0,0,Times New Roman) Vertical
F KLL
annot text peak Data 798.54 14257 RGB(0,0,0) Font(14,18,0,0,Times New Roman) Vertical
F 1s
annot text peak Data 1452.54 486 RGB(0,0,0) Font(14,18,0,0,Times New Roman) Vertical
F 2s
0
0
   XPS     Spectrum    Lens Mode:Hybrid   Resolution:Pass energy 80    Iris(Aper):slot(Slot)
   Acqn. Time(s): 110        Sweeps: 1        Anode:Mono(Al (Mono))(150 W)   Step(meV): 1000.0
   Dwell Time(ms): 100        Charge Neutraliser :On   Acquired On :17/07/04 11:05:02
XPS
72
6
0
Mono(Al (Mono))
1486.69
150
1e+037
1e+037
6000
6000
1e+037
1e+037
FAT
80
1e+037
-4.45
0
1e+037
1e+037
1e+037
1e+037
Wide
None
-1
Kinetic Energy
eV
386.69
1
2
Intensity
d
Transmission
d
pulse counting
0.1
1
0
1e+037
1e+037
1e+037
0
2202
1
14257
8.48115
10.2364
2898
10.2364
2948
10.2286
2948
10.2207
2892
10.2129
2935
10.2051
2851
10.1972
2956
10.1894
2933
10.1815
2970
10.1737
2897
10.1658
2984
10.158
3013
10.1502
2952
10.1423
2858
10.1345
2888
10.1266
2981
10.1188
2962
10.1109
2986
10.1031
2925
10.0953
2979
10.0874
2923
10.0796
2937
10.0717
2975
10.0639
2908
10.056
2887
10.0492
2971
10.0427
3003
10.0362
3008
10.0296
2986
10.0231
2940
10.0166
2918
10.0101
2999
10.0035
2960
9.997
2919
9.99047
3054
9.98395
3025
9.97742
2982
9.97089
2922
9.96436
2981
9.95784
3044
9.95131
2995
9.94478
3120
9.93825
3078
9.93173
3023
9.9252
2973
9.91867
3064
9.91215
3057
9.90562
3043
9.89909
2932
9.89256
3028
9.88604
3023
9.87951
3008
9.87298
3037
9.86645
3040
9.85993
2952
9.8534
2929
9.84687
3019
9.84034
3066
9.83382
3045
9.82729
3043
9.82076
3071
9.81423
3094
9.80771
3104
9.80118
3147
9.79465
3105
9.78813
3161
9.7816
3124
9.77507
3117
9.76854
3156
9.76202
3105
9.75549
3117
9.74896
3096
9.74243
3102
9.73591
3122
9.72938
3057
9.72439
3129
9.71983
3130
9.71527
3180
9.71071
3194
9.70615
3156
9.7016
3217
9.69704
3202
9.69248
3252
9.68792
3182
9.68336
3151
9.67881
3113
9.67425
3113
9.66969
3193
9.66513
3168
9.66057
3176
9.65602
3198
9.65146
3308
9.6469
3227
9.64234
3187
9.63778
3189
9.63322
3236
9.62867
3257
9.62411
3225
9.61955
3186
9.61499
3290
9.61043
3235
9.60588
3232
9.60132
3208
9.59676
3130
9.5922
3173
9.58764
3233
9.58309
3281
9.57853
3259
9.57397
3148
9.56941
3219
9.56485
3273
9.56029
3279
9.55574
3259
9.55118
3194
9.54662
3171
9.54206
3298
9.5375
3273
9.53294
3251
9.52839
3177
9.52383
3190
9.51927
3237
9.51471
3205
9.51015
3338
9.5056
3294
9.50104
3374
9.4966
3387
9.49219
3380
9.48778
3254
9.48337
3315
9.47896
3273
9.47455
3346
9.47014
3292
9.46573
3254
9.46132
3254
9.45691
3161
9.45251
3147
9.4481
3109
9.44369
3100
9.43928
3051
9.43487
3074
9.43046
3056
9.42605
3128
9.42164
3118
9.41723
3076
9.41282
3115
9.40841
3124
9.40401
3200
9.3996
3027
9.39519
3086
9.39078
3072
9.38637
3073
9.38196
3035
9.37755
3021
9.37314
3183
9.36873
3208
9.36432
3180
9.35992
3193
9.35551
3042
9.3511
3139
9.34669
3126
9.34228
3086
9.33787
3215
9.33346
3130
9.32905
3105
9.32464
3162
9.32023
3203
9.31583
3226
9.31142
3162
9.30701
3109
9.3026
3134
9.29819
3134
9.29378
3078
9.28937
3168
9.28496
3221
9.28055
3264
9.27708
3184
9.27386
3227
9.27065
3158
9.26744
3174
9.26422
3235
9.26101
3194
9.2578
3336
9.25458
3326
9.25137
3183
9.24816
3181
9.24494
3262
9.24173
3299
9.23852
3254
9.2353
3232
9.23209
3282
9.22888
3234
9.22566
3245
9.22245
3252
9.21924
3242
9.21602
3242
9.21281
3259
9.2096
3268
9.20638
3223
9.20317
3246
9.19996
3251
9.19674
3244
9.19353
3209
9.19032
3098
9.1871
3231
9.18389
3289
9.18068
3325
9.17746
3283
9.17425
3330
9.17104
3265
9.16782
3291
9.16461
3345
9.1614
3320
9.15818
3351
9.15497
3293
9.15176
3287
9.14854
3382
9.14533
3407
9.14212
3362
9.1389
3506
9.13569
3456
9.13247
3374
9.12926
3501
9.12605
3491
9.12284
3501
9.11962
3521
9.11731
3445
9.11525
3404
9.11319
3406
9.11112
3423
9.10906
3373
9.107
3350
9.10494
3283
9.10288
3304
9.10082
3344
9.09876
3363
9.0967
3321
9.09464
3328
9.09258
3496
9.09052
3546
9.08845
3719
9.08639
3758
9.08433
3797
9.08227
3951
9.08021
3877
9.07815
3748
9.07609
3620
9.07403
3504
9.07197
3412
9.06991
3428
9.06785
3403
9.06578
3387
9.06372
3346
9.06166
3244
9.0596
3137
9.05754
3050
9.05548
2972
9.05342
2934
9.05136
2978
9.0493
2881
9.04724
2862
9.04518
2917
9.04311
3023
9.04105
3059
9.03899
3165
9.03693
3299
9.03487
3578
9.03281
3998
9.03075
4420
9.02869
4803
9.02663
5066
9.02457
4921
9.0225
4598
9.02044
4057
9.01838
3664
9.01632
3428
9.01335
3197
9.01012
3051
9.0069
2841
9.00367
2662
9.00044
2534
8.99721
2300
8.99398
2209
8.99076
2151
8.98753
2126
8.9843
2035
8.98107
2078
8.97784
2049
8.97462
2034
8.97139
2002
8.96816
2032
8.96493
1961
8.9617
1978
8.95848
1976
8.95525
2035
8.95202
2039
8.94879
2014
8.94556
2024
8.94234
2079
8.93911
1981
8.93588
2041
8.93265
2043
8.92942
2074
8.9262
2023
8.92297
1954
8.91974
2016
8.91651
2104
8.91328
2003
8.91006
1942
8.90683
1957
8.9036
2027
8.90037
1994
8.89714
1936
8.89392
1981
8.89069
2010
8.88746
1950
8.88483
2022
8.88236
2117
8.8799
2072
8.87743
2004
8.87497
1992
8.87251
2000
8.87004
2000
8.86758
1989
8.86511
1965
8.86265
2012
8.86019
2023
8.85772
2017
8.85526
2049
8.85279
2040
8.85033
1963
8.84786
1979
8.8454
2027
8.84294
2033
8.84047
1949
8.83801
2047
8.83554
1934
8.83308
1938
8.83062
1913
8.82815
1971
8.82569
1968
8.82322
1984
8.82076
2042
8.81829
2033
8.81583
1976
8.81337
1984
8.8109
2018
8.80844
2037
8.80597
2007
8.80351
2034
8.80104
2023
8.79858
2047
8.79612
2006
8.79365
2039
8.79119
2022
8.78872
2092
8.78626
2049
8.7838
2027
8.78133
2025
8.77887
2040
8.7764
2043
8.77394
2026
8.77147
1997
8.76901
2022
8.76655
2040
8.76408
1980
8.76162
2008
8.75915
1958
8.75669
1972
8.75422
2012
8.75176
1930
8.7493
1905
8.74683
1991
8.74437
1956
8.7419
1979
8.73944
1969
8.73885
1983
8.73879
2019
8.73873
2018
8.73867
2071
8.73861
2147
8.73855
2163
8.73849
2136
8.73843
2090
8.73837
2160
8.73831
2130
8.73825
2085
8.73819
2085
8.73813
2078
8.73806
2137
8.738
2128
8.73794
2067
8.73788
2039
8.73782
2037
8.73776
2021
8.7377
2026
8.73764
1893
8.73758
1793
8.73752
1752
8.73746
1639
8.7374
1488
8.73734
1493
8.73728
1441
8.73722
1290
8.73716
1227
8.7371
1120
8.73704
1049
8.73698
990
8.73692
933
8.73686
911
8.7368
942
8.73674
1082
8.73668
1427
8.73662
3479
8.73655
10099
8.73649
14257
8.73643
6820
8.73637
1788
8.73631
933
8.73625
756
8.73619
748
8.73613
699
8.73607
715
8.73601
677
8.73595
715
8.73589
693
8.73468
686
8.73314
671
8.73161
661
8.73007
651
8.72854
721
8.727
652
8.72547
673
8.72393
681
8.7224
683
8.72086
701
8.71933
694
8.71779
657
8.71626
645
8.71472
653
8.71319
677
8.71165
694
8.71012
691
8.70858
734
8.70705
691
8.70551
686
8.70398
691
8.70244
667
8.70091
650
8.69937
684
8.69784
651
8.6963
646
8.69477
665
8.69323
684
8.6917
671
8.69016
662
8.68863
665
8.68709
677
8.68556
717
8.68402
668
8.68249
675
8.68095
701
8.67942
662
8.67788
690
8.67635
728
8.67481
714
8.67328
709
8.67174
680
8.67021
657
8.66867
682
8.66714
679
8.6656
676
8.66407
692
8.66253
686
8.661
720
8.65946
743
8.65793
727
8.65639
728
8.65486
715
8.65332
668
8.65179
683
8.65025
690
8.64872
725
8.64718
677
8.64565
697
8.64411
671
8.64417
660
8.64468
710
8.64518
731
8.64569
716
8.6462
706
8.6467
731
8.64721
709
8.64772
735
8.64822
756
8.64873
730
8.64924
735
8.64974
699
8.65025
699
8.65075
748
8.65126
695
8.65177
699
8.65228
734
8.65278
744
8.65329
694
8.65379
667
8.6543
702
8.65481
708
8.65531
734
8.65582
713
8.65633
740
8.65683
745
8.65734
736
8.65785
739
8.65835
735
8.65886
740
8.65937
742
8.65987
738
8.66038
738
8.66089
700
8.66139
708
8.6619
720
8.66241
750
8.66291
741
8.66342
741
8.66393
747
8.66317
691
8.66206
794
8.66095
767
8.65984
744
8.65872
748
8.65761
759
8.6565
742
8.65539
738
8.65428
704
8.65317
721
8.65206
726
8.65094
740
8.64983
753
8.64872
757
8.64761
767
8.6465
781
8.64539
756
8.64428
758
8.64317
785
8.64205
779
8.64094
782
8.63983
783
8.63872
792
8.63761
809
8.6365
748
8.63539
729
8.63427
755
8.63316
746
8.63205
746
8.63094
697
8.62983
704
8.62872
732
8.62761
718
8.6265
680
8.62538
654
8.62427
650
8.62316
590
8.62205
642
8.62094
632
8.61983
613
8.61872
609
8.6176
687
8.61649
865
8.61538
1288
8.61427
1864
8.61316
1812
8.61205
1212
8.61094
751
8.60983
628
8.60871
583
8.6076
604
8.60649
587
8.60538
543
8.60427
582
8.60316
569
8.60205
574
8.60093
589
8.59982
586
8.59871
582
8.5976
592
8.59692
574
8.59635
574
8.59579
588
8.59522
567
8.59466
576
8.5941
585
8.59353
610
8.59297
603
8.5924
608
8.59184
583
8.59128
600
8.59071
548
8.59015
594
8.58958
595
8.58902
545
8.58846
582
8.58789
592
8.58733
573
8.58676
585
8.5862
582
8.58564
583
8.58507
573
8.58451
605
8.58394
609
8.58338
600
8.58282
608
8.58225
576
8.58169
565
8.58112
586
8.58056
613
8.58
596
8.57943
600
8.57887
580
8.5783
603
8.57774
608
8.57718
621
8.57661
592
8.57605
552
8.57548
588
8.57492
605
8.57413
629
8.57328
611
8.57243
607
8.57158
590
8.57074
523
8.56989
544
8.56904
606
8.56819
636
8.56734
579
8.56649
581
8.56564
624
8.56479
624
8.56394
606
8.56309
603
8.56224
585
8.56139
565
8.56055
589
8.5597
595
8.55885
606
8.558
603
8.55715
630
8.5563
558
8.55545
571
8.5546
558
8.55375
591
8.5529
627
8.55205
666
8.5512
593
8.55035
595
8.54951
598
8.54866
632
8.54781
641
8.54696
630
8.54611
597
8.54526
631
8.54441
621
8.54356
619
8.54271
633
8.54186
656
8.54101
639
8.54016
638
8.53932
610
8.53847
597
8.53762
610
8.53677
572
8.53592
613
8.53507
629
8.53422
614
8.53337
623
8.53252
640
8.5335
625
8.535
654
8.5365
657
8.538
633
8.5395
638
8.541
635
8.5425
627
8.544
637
8.5455
587
8.547
590
8.5485
587
8.55
628
8.5515
623
8.553
627
8.5545
595
8.556
647
8.5575
636
8.55899
643
8.56049
611
8.56199
623
8.56349
643
8.56499
670
8.56649
625
8.56799
645
8.56949
671
8.57099
684
8.57249
683
8.57399
636
8.57549
640
8.57699
642
8.57849
657
8.57999
645
8.58149
646
8.58298
646
8.58448
626
8.58598
665
8.58748
646
8.58898
622
8.59048
617
8.59198
640
8.59135
660
8.59011
689
8.58887
663
8.58763
659
8.58639
703
8.58515
649
8.58392
652
8.58268
648
8.58144
676
8.5802
658
8.57896
643
8.57773
694
8.57649
696
8.57525
667
8.57401
648
8.57277
645
8.57154
650
8.5703
653
8.56906
680
8.56782
684
8.56658
679
8.56534
691
8.56411
691
8.56287
702
8.56163
714
8.56039
733
8.55915
712
8.55792
665
8.55668
677
8.55544
681
8.5542
686
8.55296
696
8.55173
727
8.55049
716
8.54925
699
8.54801
681
8.54677
674
8.54553
712
8.5443
687
8.54306
669
8.54182
686
8.54058
717
8.53934
725
8.53811
694
8.53687
692
8.53563
682
8.53439
746
8.53315
716
8.53191
727
8.53068
767
8.52944
711
8.5282
711
8.52696
667
8.52572
693
8.52449
680
8.52325
752
8.52201
734
8.52077
727
8.51953
724
8.5183
747
8.51706
776
8.51582
732
8.51458
767
8.51334
789
8.5121
771
8.51087
763
8.50963
762
8.50839
787
8.50715
803
8.50591
765
8.50468
760
8.50344
783
8.5022
767
8.50096
789
8.49972
768
8.49849
768
8.49725
751
8.49601
718
8.49477
739
8.49353
700
8.49229
674
8.49106
648
8.48982
624
8.48858
620
8.48734
591
8.4861
570
8.48487
552
8.48363
533
8.48239
499
8.48115
400
8.4832
346
8.48617
290
8.48914
279
8.49212
303
8.49509
363
8.49806
575
8.50104
1133
8.50401
3265
8.50698
3646
8.50995
1433
8.51293
997
8.5159
1093
8.51887
1720
8.52185
1946
8.52482
684
8.52779
191
8.53077
134
8.53374
118
8.53671
126
8.53969
113
8.54266
119
8.54563
114
8.5486
126
8.55158
126
8.55455
128
8.55752
129
8.5605
120
8.56347
132
8.56644
117
8.56942
128
8.57239
124
8.57536
117
8.57833
119
8.58131
128
8.58428
127
8.58725
136
8.59023
132
8.5932
115
8.59617
112
8.59915
121
8.60212
113
8.60509
114
8.60806
108
8.61104
120
8.61401
116
8.61698
129
8.61996
110
8.62293
129
8.6259
119
8.62888
123
8.63012
117
8.63087
127
8.63163
123
8.63238
128
8.63314
117
8.63389
112
8.63465
113
8.6354
108
8.63616
108
8.63691
127
8.63767
119
8.63842
129
8.63918
122
8.63993
128
8.64069
143
8.64144
143
8.64219
152
8.64295
124
8.6437
120
8.64446
129
8.64521
121
8.64597
130
8.64672
134
8.64748
129
8.64823
131
8.64899
121
8.64974
136
8.6505
124
8.65125
111
8.65201
120
8.65276
123
8.65352
111
8.65427
132
8.65503
125
8.65578
132
8.65654
131
8.65729
103
8.65804
111
8.6588
108
8.65955
121
8.66031
140
8.66106
104
8.66182
112
8.66257
132
8.66333
123
8.66408
133
8.66484
145
8.66559
129
8.66635
122
8.6671
121
8.66786
124
8.66861
128
8.66937
115
8.67012
135
8.67088
115
8.67163
121
8.67239
142
8.67314
130
8.6739
109
8.67465
114
8.6743
117
8.67363
128
8.67297
120
8.6723
120
8.67163
148
8.67097
117
8.6703
115
8.66964
113
8.66897
131
8.6683
123
8.66764
127
8.66697
117
8.66631
147
8.66564
132
8.66498
117
8.66431
143
8.66364
133
8.66298
145
8.66231
177
8.66165
160
8.66098
141
8.66032
134
8.65965
135
8.65898
146
8.65832
139
8.65765
126
8.65699
135
8.65632
130
8.65565
128
8.65499
122
8.65432
110
8.65366
121
8.65299
127
8.65233
146
8.65166
171
8.65099
165
8.65033
144
8.64966
130
8.649
129
8.64833
120
8.64767
122
8.647
136
8.64633
130
8.64567
138
8.645
135
8.64434
128
8.64367
128
8.643
132
8.64234
116
8.64167
113
8.64101
121
8.64034
155
8.63968
129
8.63901
140
8.63834
125
8.63768
128
8.6398
117
8.64272
125
8.64563
145
8.64854
135
8.65146
117
8.65437
125
8.65728
127
8.6602
133
8.66311
128
8.66602
117
8.66894
132
8.67185
124
8.67476
137
8.67768
138
8.68059
155
8.6835
136
8.68642
129
8.68933
130
8.69224
141
8.69516
145
8.69807
139
8.70098
151
8.7039
125
8.70681
138
8.70972
150
8.71264
121
8.71555
138
8.71846
134
8.72137
126
8.72429
171
8.7272
163
8.73011
144
8.73303
145
8.73594
136
8.73885
138
8.74177
131
8.74468
144
8.74759
143
8.75051
133
8.75342
123
8.75633
147
8.75925
132
8.76216
137
8.76507
141
8.76799
137
8.7709
124
8.77381
120
8.77673
136
8.77964
136
8.78255
138
8.78547
148
8.78838
124
8.79129
126
8.79421
129
8.79712
133
8.80003
135
8.80295
138
8.80586
142
8.80877
136
8.81169
147
8.8146
138
8.81751
140
8.82043
146
8.82334
148
8.82625
168
8.82916
139
8.83208
152
8.83499
153
8.8379
153
8.84082
141
8.84373
150
8.84664
141
8.84956
131
8.85247
154
8.85538
152
8.8583
152
8.86121
134
8.86412
150
8.86704
159
8.86995
152
8.87286
139
8.87578
129
8.87869
135
8.8816
131
8.88452
107
8.88743
98
8.89034
136
8.89326
130
8.89617
92
8.89908
112
8.902
113
8.90491
113
8.90782
112
8.91074
136
8.91365
171
8.91656
272
8.91948
397
8.92239
486
8.9253
462
8.92822
309
8.93113
171
8.93404
119
8.93695
118
8.93987
85
8.94051
77
8.94051
77
8.94051
77
8.94051
80
8.94051
81
8.94051
88
8.94051
112
8.94051
95
8.94051
86
8.94051
79
8.94051
85
8.94051
98
8.94051
115
8.94051
119
8.94051
117
8.94051
122
8.94051
146
8.94051
161
8.94051
104
8.94051
63
8.94051
50
8.94051
37
8.94051
28
8.94051
10
8.94051
5
8.94051
1
8.94051
F 1s/5
Not Specified
2017
7
4
13
57
30
0
9
Casa Info Follows
1
Calib M = 282.45 A = 284.6 BE ADD
0
0
0
   XPS     Spectrum    Lens Mode:Hybrid   Resolution:Pass energy 40    Iris(Aper):slot(Slot)
   Acqn. Time(s): 121        Sweeps: 2        Anode:Mono(Al (Mono))(150 W)   Step(meV): 50.0  
   Dwell Time(ms): 150        Charge Neutraliser :On   Acquired On :17/07/04 13:57:30
XPS
72
6
0
Mono(Al (Mono))
1486.69
150
1e+037
1e+037
6000
6000
1e+037
1e+037
FAT
40
1e+037
-4.45
0
1e+037
1e+037
1e+037
1e+037
F
1s
-1
Kinetic Energy
eV
790.64
0.05
2
Intensity
d
Transmission
d
pulse counting
0.15
2
0
1e+037
1e+037
1e+037
0
806
730
22732
3.41724
3.42712
1298
3.42712
1300
3.4271
1267
3.42707
1256
3.42705
1295
3.42702
1289
3.427
1235
3.42698
1214
3.42695
1203
3.42693
1191
3.4269
1147
3.42688
1200
3.42686
1171
3.42683
1144
3.42681
1161
3.42678
1159
3.42676
1181
3.42674
1172
3.42671
1181
3.42669
1148
3.42667
1134
3.42664
1052
3.42662
1080
3.42659
1046
3.42657
1146
3.42655
1061
3.42652
1047
3.4265
1091
3.42647
1075
3.42645
1057
3.42643
1078
3.4264
1084
3.42638
1073
3.42636
1003
3.42633
1069
3.42631
1016
3.42628
999
3.42626
1026
3.42624
993
3.42621
1040
3.42619
994
3.42616
1022
3.42614
978
3.42612
978
3.42609
1019
3.42607
1030
3.42605
1004
3.42602
1024
3.426
1013
3.42597
973
3.42595
944
3.42593
1021
3.4259
1028
3.42588
1020
3.42585
1004
3.42583
975
3.42581
981
3.42578
975
3.42576
1048
3.42573
981
3.42571
1053
3.42569
1037
3.42566
997
3.42564
1026
3.42562
1005
3.42559
1020
3.42557
982
3.42554
963
3.42552
981
3.4255
996
3.42547
1012
3.42545
1005
3.42542
1020
3.4254
1021
3.42538
975
3.42535
989
3.42533
1006
3.42531
1039
3.42528
1003
3.42526
996
3.42523
992
3.42521
1010
3.42519
1002
3.42516
1056
3.42514
1031
3.42511
982
3.42509
1015
3.42507
985
3.42504
988
3.42502
983
3.425
1007
3.42497
1051
3.42495
1019
3.42492
1012
3.4249
1045
3.42488
998
3.42485
1013
3.42483
1037
3.4248
996
3.42478
986
3.42476
1017
3.42473
1050
3.42471
1072
3.42469
1085
3.42466
1061
3.42464
1010
3.42461
1000
3.42459
1054
3.42457
1113
3.42454
1083
3.42452
1110
3.42449
1053
3.42447
1107
3.42445
1092
3.42442
1130
3.4244
1085
3.42437
1131
3.42435
1121
3.42433
1174
3.4243
1184
3.42428
1161
3.42426
1167
3.42423
1102
3.42421
1089
3.42418
1118
3.42416
1113
3.42414
1167
3.42411
1240
3.42409
1179
3.42406
1205
3.42404
1172
3.42402
1189
3.42399
1251
3.42397
1255
3.42395
1202
3.42392
1271
3.4239
1205
3.42387
1230
3.42385
1329
3.42383
1357
3.4238
1322
3.42378
1422
3.42375
1412
3.42373
1440
3.42371
1449
3.42368
1460
3.42366
1473
3.42364
1494
3.42361
1627
3.42359
1767
3.42356
1732
3.42354
1822
3.42352
2003
3.42349
2054
3.42347
2123
3.42344
2330
3.42342
2342
3.4234
2580
3.42337
2726
3.42335
3013
3.42333
3174
3.4233
3340
3.42328
3702
3.42325
4012
3.42323
4290
3.42321
4634
3.42318
5149
3.42316
5629
3.42313
6096
3.42311
6546
3.42309
7051
3.42306
7840
3.42304
8444
3.42301
9168
3.42299
9895
3.42297
10772
3.42294
11721
3.42292
12597
3.4229
13438
3.42287
14245
3.42285
15188
3.42282
15943
3.4228
17000
3.42278
17972
3.42275
18764
3.42273
19539
3.4227
20283
3.42268
20748
3.42266
21414
3.42263
22062
3.42261
22428
3.42259
22640
3.42256
22604
3.42254
22732
3.42251
22563
3.42249
22306
3.42247
21886
3.42244
21578
3.42242
21044
3.42239
20479
3.42237
19362
3.42235
18801
3.42232
17650
3.4223
16740
3.42228
15806
3.42225
14784
3.42223
13916
3.4222
12898
3.42218
11745
3.42216
10800
3.42213
9800
3.42211
9221
3.42208
8520
3.42206
7652
3.42204
6911
3.42201
6319
3.42199
5775
3.42196
5210
3.42194
4854
3.42192
4394
3.42189
4042
3.42187
3793
3.42185
3463
3.42182
3136
3.4218
2964
3.42177
2707
3.42175
2489
3.42173
2379
3.4217
2264
3.42168
2118
3.42165
1955
3.42163
1841
3.42161
1760
3.42158
1649
3.42156
1664
3.42154
1610
3.42151
1537
3.42149
1419
3.42146
1361
3.42144
1327
3.42142
1341
3.42139
1270
3.42137
1218
3.42134
1201
3.42132
1200
3.4213
1148
3.42127
1145
3.42125
1111
3.42123
1093
3.4212
1109
3.42118
1046
3.42115
1015
3.42113
1039
3.42111
1020
3.42108
1004
3.42106
978
3.42103
989
3.42101
1020
3.42099
984
3.42096
987
3.42094
929
3.42091
971
3.42089
923
3.42087
923
3.42084
977
3.42082
937
3.4208
934
3.42077
890
3.42075
905
3.42072
881
3.4207
886
3.42068
898
3.42065
887
3.42063
865
3.4206
876
3.42058
884
3.42056
861
3.42053
851
3.42051
859
3.42049
864
3.42046
887
3.42044
884
3.42041
833
3.42039
826
3.42037
826
3.42034
850
3.42032
875
3.42029
915
3.42027
877
3.42025
857
3.42022
893
3.4202
847
3.42018
824
3.42015
833
3.42013
868
3.4201
864
3.42008
847
3.42006
875
3.42003
832
3.42001
842
3.41998
810
3.41996
834
3.41994
831
3.41991
849
3.41989
844
3.41986
811
3.41984
796
3.41982
800
3.41979
828
3.41977
836
3.41975
869
3.41972
840
3.4197
833
3.41967
797
3.41965
827
3.41963
842
3.4196
876
3.41958
833
3.41955
823
3.41953
795
3.41951
783
3.41948
832
3.41946
787
3.41944
803
3.41941
855
3.41939
806
3.41936
822
3.41934
822
3.41932
821
3.41929
770
3.41927
878
3.41924
830
3.41922
792
3.4192
775
3.41917
818
3.41915
820
3.41913
796
3.4191
790
3.41908
825
3.41905
796
3.41903
747
3.41901
830
3.41898
794
3.41896
810
3.41893
810
3.41891
797
3.41889
788
3.41886
823
3.41884
861
3.41881
806
3.41879
764
3.41877
813
3.41874
793
3.41872
797
3.4187
831
3.41867
802
3.41865
833
3.41862
844
3.4186
788
3.41858
810
3.41855
837
3.41853
796
3.4185
774
3.41848
730
3.41846
775
3.41843
760
3.41841
796
3.41839
781
3.41836
845
3.41834
780
3.41831
758
3.41829
743
3.41827
785
3.41824
793
3.41822
787
3.41819
805
3.41817
815
3.41815
850
3.41812
800
3.4181
812
3.41808
796
3.41805
762
3.41803
789
3.418
820
3.41798
775
3.41796
778
3.41793
802
3.4179
782
3.41786
756
3.41781
763
3.41777
792
3.41773
792
3.41769
816
3.41765
793
3.41761
808
3.41757
809
3.41753
787
3.41748
798
3.41744
800
3.4174
793
3.41736
790
3.41732
807
3.41728
823
3.41724
O 1s/6
Not Specified
2017
7
4
13
57
30
0
9
Casa Info Follows
1
Calib M = 282.45 A = 284.6 BE ADD
0
0
0
   XPS     Spectrum    Lens Mode:Hybrid   Resolution:Pass energy 40    Iris(Aper):slot(Slot)
   Acqn. Time(s): 162        Sweeps: 3        Anode:Mono(Al (Mono))(150 W)   Step(meV): 50.0  
   Dwell Time(ms): 150        Charge Neutraliser :On   Acquired On :17/07/04 13:57:30
XPS
72
6
0
Mono(Al (Mono))
1486.69
150
1e+037
1e+037
6000
6000
1e+037
1e+037
FAT
40
1e+037
-4.45
0
1e+037
1e+037
1e+037
1e+037
O
1s
-1
Kinetic Energy
eV
946.69
0.05
2
Intensity
d
Transmission
d
pulse counting
0.15
3
0
1e+037
1e+037
1e+037
0
722
920
3823
3.32569
3.34183
1063
3.34183
1106
3.34178
1123
3.34174
1043
3.34169
1096
3.34165
1105
3.3416
1138
3.34156
1071
3.34151
1059
3.34147
1095
3.34142
1173
3.34138
1097
3.34133
1073
3.34129
1053
3.34124
1052
3.3412
1117
3.34115
1092
3.34111
1069
3.34107
1093
3.34102
1096
3.34098
1101
3.34093
1088
3.34089
1088
3.34084
1072
3.3408
1063
3.34075
1058
3.34071
1067
3.34066
1029
3.34062
1078
3.34057
1047
3.34053
1066
3.34048
1046
3.34044
1089
3.34039
1057
3.34035
1133
3.3403
1067
3.34026
1075
3.34021
1070
3.34017
1051
3.34012
1061
3.34008
1059
3.34003
1075
3.33999
1068
3.33994
1086
3.3399
1090
3.33985
1080
3.33981
1095
3.33976
1074
3.33972
1105
3.33968
1060
3.33963
1050
3.33959
1056
3.33954
1101
3.3395
1103
3.33945
1096
3.33941
1100
3.33936
1044
3.33932
1021
3.33927
1055
3.33923
1067
3.33918
1092
3.33914
1032
3.33909
1064
3.33905
1056
3.339
1032
3.33896
1047
3.33891
1071
3.33887
1004
3.33882
1066
3.33878
1086
3.33873
1084
3.33869
1074
3.33864
1077
3.3386
1002
3.33855
1082
3.33851
1026
3.33846
1068
3.33842
1019
3.33837
1074
3.33833
1057
3.33829
1111
3.33824
1037
3.3382
1041
3.33815
1097
3.33811
1131
3.33806
1074
3.33802
1060
3.33797
1158
3.33793
1054
3.33788
1076
3.33784
1050
3.33779
1092
3.33775
1045
3.3377
1050
3.33766
1099
3.33761
1074
3.33757
1090
3.33752
1074
3.33748
1056
3.33743
1037
3.33739
1082
3.33734
1069
3.3373
1122
3.33725
1036
3.33721
1091
3.33716
1110
3.33712
1089
3.33707
1049
3.33703
1082
3.33698
1143
3.33694
1132
3.3369
1053
3.33685
1063
3.33681
1100
3.33676
1096
3.33672
1092
3.33667
1083
3.33663
1099
3.33658
1144
3.33654
1108
3.33649
1151
3.33645
1120
3.3364
1179
3.33636
1167
3.33631
1138
3.33627
1228
3.33622
1212
3.33618
1196
3.33613
1174
3.33609
1201
3.33604
1209
3.336
1221
3.33595
1210
3.33591
1256
3.33586
1254
3.33582
1355
3.33577
1342
3.33573
1308
3.33568
1301
3.33564
1348
3.3356
1403
3.33555
1399
3.33551
1459
3.33546
1508
3.33542
1513
3.33537
1533
3.33533
1621
3.33528
1643
3.33524
1692
3.33519
1658
3.33515
1749
3.3351
1801
3.33506
1882
3.33501
1940
3.33497
2001
3.33492
2098
3.33488
2176
3.33483
2233
3.33479
2405
3.33474
2446
3.3347
2482
3.33465
2645
3.33461
2770
3.33456
2860
3.33452
2909
3.33447
3018
3.33443
3139
3.33438
3230
3.33434
3202
3.33429
3414
3.33425
3374
3.33421
3452
3.33416
3676
3.33412
3620
3.33407
3666
3.33403
3692
3.33398
3640
3.33394
3720
3.33389
3823
3.33385
3817
3.3338
3750
3.33376
3711
3.33371
3770
3.33367
3796
3.33362
3700
3.33358
3729
3.33353
3637
3.33349
3629
3.33344
3596
3.3334
3619
3.33335
3566
3.33331
3495
3.33326
3441
3.33322
3418
3.33317
3275
3.33313
3314
3.33308
3194
3.33304
3289
3.33299
3127
3.33295
3056
3.3329
3029
3.33286
2886
3.33282
3011
3.33277
2970
3.33273
2809
3.33268
2804
3.33264
2755
3.33259
2642
3.33255
2616
3.3325
2453
3.33246
2443
3.33241
2301
3.33237
2228
3.33232
2210
3.33228
2114
3.33223
2077
3.33219
2030
3.33214
1940
3.3321
1787
3.33205
1777
3.33201
1656
3.33196
1574
3.33192
1466
3.33187
1420
3.33183
1441
3.33178
1401
3.33174
1371
3.33169
1325
3.33165
1255
3.3316
1210
3.33156
1183
3.33151
1181
3.33147
1167
3.33143
1128
3.33138
1149
3.33134
1174
3.33129
1097
3.33125
1116
3.3312
1064
3.33116
1049
3.33111
1038
3.33107
1039
3.33102
1008
3.33098
1010
3.33093
1024
3.33089
1033
3.33084
1004
3.3308
1020
3.33075
1001
3.33071
1043
3.33066
1067
3.33062
1029
3.33057
1037
3.33053
1029
3.33048
960
3.33044
1019
3.33039
965
3.33035
954
3.3303
948
3.33026
950
3.33021
965
3.33017
988
3.33012
990
3.33008
1002
3.33004
987
3.32999
975
3.32995
975
3.3299
969
3.32986
990
3.32981
1009
3.32977
1034
3.32972
1026
3.32968
955
3.32963
979
3.32959
999
3.32954
987
3.3295
978
3.32945
964
3.32941
973
3.32936
1013
3.32932
987
3.32927
1003
3.32923
1013
3.32918
968
3.32914
962
3.32909
984
3.32905
980
3.329
994
3.32896
996
3.32891
995
3.32887
981
3.32882
967
3.32878
1009
3.32873
1010
3.32869
1060
3.32865
1033
3.3286
960
3.32856
952
3.32851
985
3.32847
981
3.32842
994
3.32838
967
3.32833
1007
3.32829
1031
3.32824
1041
3.3282
946
3.32815
993
3.32811
956
3.32806
986
3.32802
998
3.32797
977
3.32793
978
3.32788
1008
3.32784
990
3.32779
1008
3.32775
957
3.3277
954
3.32766
955
3.32761
1030
3.32757
967
3.32752
953
3.32748
975
3.32743
988
3.32739
992
3.32735
965
3.3273
967
3.32726
1011
3.32721
982
3.32717
1000
3.32712
966
3.32708
1009
3.32703
973
3.32699
989
3.32694
990
3.3269
1036
3.32685
988
3.32681
998
3.32676
1038
3.32672
993
3.32667
985
3.32663
1035
3.32658
1017
3.32654
1008
3.32649
965
3.32645
949
3.3264
948
3.32636
989
3.32631
948
3.32627
941
3.32622
920
3.32618
1039
3.32613
1002
3.32609
966
3.32604
938
3.326
950
3.32596
971
3.32591
969
3.32587
980
3.32582
943
3.32578
1005
3.32573
959
3.32569
C 1s/7
Not Specified
2017
7
4
13
57
30
0
9
Casa Info Follows
1
Calib M = 282.45 A = 284.6 BE ADD
0
0
0
   XPS     Spectrum    Lens Mode:Hybrid   Resolution:Pass energy 40    Iris(Aper):slot(Slot)
   Acqn. Time(s): 138        Sweeps: 2        Anode:Mono(Al (Mono))(150 W)   Step(meV): 50.0  
   Dwell Time(ms): 150        Charge Neutraliser :On   Acquired On :17/07/04 13:57:30
XPS
72
6
0
Mono(Al (Mono))
1486.69
150
1e+037
1e+037
6000
6000
1e+037
1e+037
FAT
40
1e+037
-4.45
0
1e+037
1e+037
1e+037
1e+037
C
1s
-1
Kinetic Energy
eV
1190.19
0.05
2
Intensity
d
Transmission
d
pulse counting
0.15
2
0
1e+037
1e+037
1e+037
0
922
103
6928
3.16755
3.19198
434
3.16755
416
3.1676
430
3.16765
433
3.16771
383
3.16776
417
3.16781
425
3.16787
421
3.16792
426
3.16797
411
3.16802
403
3.16808
393
3.16813
387
3.16818
398
3.16824
409
3.16829
381
3.16834
375
3.1684
413
3.16845
376
3.1685
382
3.16856
385
3.16861
387
3.16866
383
3.16871
404
3.16877
335
3.16882
371
3.16887
357
3.16893
384
3.16898
380
3.16903
379
3.16909
355
3.16914
373
3.16919
334
3.16925
364
3.1693
363
3.16935
365
3.16941
336
3.16946
328
3.16951
346
3.16956
348
3.16962
349
3.16967
358
3.16972
339
3.16978
334
3.16983
341
3.16988
331
3.16994
357
3.16999
358
3.17004
362
3.1701
370
3.17015
327
3.1702
341
3.17025
324
3.17031
333
3.17036
318
3.17041
362
3.17047
325
3.17052
329
3.17057
343
3.17063
334
3.17068
326
3.17073
304
3.17079
319
3.17084
344
3.17089
303
3.17095
322
3.171
319
3.17105
304
3.1711
290
3.17116
280
3.17121
300
3.17126
287
3.17132
317
3.17137
312
3.17142
315
3.17148
310
3.17153
328
3.17158
285
3.17164
324
3.17169
318
3.17174
288
3.17179
292
3.17185
284
3.1719
320
3.17195
271
3.17201
293
3.17206
282
3.17211
301
3.17217
281
3.17222
284
3.17227
282
3.17233
312
3.17238
312
3.17243
302
3.17249
330
3.17254
305
3.17259
285
3.17264
281
3.1727
311
3.17275
347
3.1728
331
3.17286
301
3.17291
293
3.17296
341
3.17302
336
3.17307
348
3.17312
321
3.17318
328
3.17323
321
3.17328
306
3.17334
320
3.17339
342
3.17344
361
3.17349
350
3.17355
330
3.1736
354
3.17365
378
3.17371
376
3.17376
392
3.17381
424
3.17387
416
3.17392
426
3.17397
453
3.17403
476
3.17408
511
3.17413
533
3.17418
548
3.17424
605
3.17429
613
3.17434
643
3.1744
666
3.17445
741
3.1745
771
3.17456
823
3.17461
816
3.17466
840
3.17472
873
3.17477
884
3.17482
890
3.17488
875
3.17493
860
3.17498
872
3.17503
868
3.17509
897
3.17514
866
3.17519
857
3.17525
863
3.1753
862
3.17535
834
3.17541
880
3.17546
913
3.17551
886
3.17557
991
3.17562
1081
3.17567
1142
3.17572
1251
3.17578
1282
3.17583
1448
3.17588
1556
3.17594
1812
3.17599
2023
3.17604
2310
3.1761
2538
3.17615
2852
3.1762
3171
3.17626
3587
3.17631
3937
3.17636
4275
3.17642
4642
3.17647
5006
3.17652
5412
3.17657
5770
3.17663
6100
3.17668
6390
3.17673
6651
3.17679
6878
3.17684
6890
3.17689
6928
3.17695
6796
3.177
6649
3.17705
6480
3.17711
6378
3.17716
6077
3.17721
5709
3.17726
5446
3.17732
5056
3.17737
4646
3.17742
4150
3.17748
3835
3.17753
3449
3.17758
3104
3.17764
2868
3.17769
2503
3.17774
2246
3.1778
2076
3.17785
1932
3.1779
1771
3.17796
1608
3.17801
1479
3.17806
1340
3.17811
1266
3.17817
1237
3.17822
1125
3.17827
1096
3.17833
1044
3.17838
1039
3.17843
964
3.17849
987
3.17854
908
3.17859
919
3.17865
984
3.1787
925
3.17875
993
3.17881
987
3.17886
1008
3.17891
1058
3.17896
1096
3.17902
1084
3.17907
1109
3.17912
1119
3.17918
1109
3.17923
1152
3.17928
1122
3.17934
1153
3.17939
1149
3.17944
1172
3.1795
1185
3.17955
1145
3.1796
1123
3.17965
1076
3.17971
1088
3.17976
1125
3.17981
1103
3.17987
1081
3.17992
1086
3.17997
1074
3.18003
1029
3.18008
1040
3.18013
1018
3.18019
1006
3.18024
1031
3.18029
1026
3.18035
1061
3.1804
1058
3.18045
1043
3.1805
1072
3.18056
1113
3.18061
1117
3.18066
1089
3.18072
1040
3.18077
1138
3.18082
1159
3.18088
1203
3.18093
1197
3.18098
1224
3.18104
1221
3.18109
1298
3.18114
1349
3.1812
1390
3.18125
1404
3.1813
1496
3.18135
1522
3.18141
1633
3.18146
1724
3.18151
1826
3.18157
1899
3.18162
2014
3.18167
2107
3.18173
2189
3.18178
2236
3.18183
2311
3.18189
2483
3.18194
2645
3.18199
2699
3.18204
2771
3.1821
2875
3.18215
2967
3.1822
3114
3.18226
3094
3.18231
3125
3.18236
3188
3.18242
3216
3.18247
3171
3.18252
3137
3.18258
3111
3.18263
2920
3.18268
2779
3.18274
2648
3.18279
2576
3.18284
2477
3.18289
2246
3.18295
2099
3.183
1934
3.18305
1779
3.18311
1596
3.18316
1408
3.18321
1222
3.18327
1066
3.18332
965
3.18337
778
3.18343
667
3.18348
610
3.18353
502
3.18358
471
3.18364
440
3.18369
398
3.18374
348
3.1838
314
3.18385
266
3.1839
274
3.18396
239
3.18401
224
3.18406
218
3.18412
214
3.18417
215
3.18422
208
3.18428
180
3.18433
162
3.18438
176
3.18443
169
3.18449
151
3.18454
162
3.18459
159
3.18465
146
3.1847
153
3.18475
162
3.18481
171
3.18486
167
3.18491
159
3.18497
160
3.18502
161
3.18507
179
3.18512
153
3.18518
145
3.18523
147
3.18528
141
3.18534
159
3.18539
145
3.18544
164
3.1855
154
3.18555
151
3.1856
152
3.18566
140
3.18571
139
3.18576
154
3.18582
155
3.18587
143
3.18592
144
3.18597
144
3.18603
145
3.18608
160
3.18613
161
3.18619
140
3.18624
152
3.18629
147
3.18635
143
3.1864
157
3.18645
148
3.18651
142
3.18656
142
3.18661
144
3.18667
145
3.18672
152
3.18677
151
3.18682
161
3.18688
146
3.18693
130
3.18698
148
3.18704
131
3.18709
155
3.18714
127
3.1872
115
3.18725
159
3.1873
144
3.18736
131
3.18741
126
3.18746
131
3.18751
147
3.18757
138
3.18762
130
3.18767
132
3.18773
142
3.18778
122
3.18783
133
3.18789
140
3.18794
128
3.18799
128
3.18805
146
3.1881
143
3.18815
121
3.18821
158
3.18826
133
3.18831
142
3.18836
145
3.18842
132
3.18847
135
3.18852
138
3.18858
142
3.18863
146
3.18868
135
3.18874
140
3.18879
143
3.18884
154
3.1889
127
3.18895
134
3.189
127
3.18905
117
3.18911
130
3.18916
133
3.18921
148
3.18927
115
3.18932
103
3.18937
143
3.18943
145
3.18948
132
3.18953
133
3.18959
131
3.18964
135
3.18969
128
3.18975
118
3.1898
136
3.18985
135
3.1899
128
3.18996
131
3.19001
150
3.19006
123
3.19012
135
3.19017
152
3.19022
139
3.19028
140
3.19033
133
3.19038
148
3.19044
126
3.19049
137
3.19054
119
3.19059
124
3.19065
135
3.1907
145
3.19075
156
3.19081
119
3.19086
129
3.19091
140
3.19097
132
3.19102
143
3.19107
149
3.19113
142
3.19118
139
3.19123
138
3.19129
113
3.19134
139
3.19139
122
3.19144
128
3.1915
121
3.19155
139
3.1916
146
3.19166
142
3.19171
157
3.19176
133
3.19182
125
3.19187
141
3.19192
152
3.19198
end of experiment
