VAMAS Surface Chemical Analysis Standard Data Transfer Format 1988 May 4
Not Specified
Kratos Axis
Not Specified
/d=/data/20170705/2017006144/C.dset
3
Casa Info Follows
0
SourceAnalyserAngle: Not Specified
MAP
REGULAR
4
2
32768
32768
1
Etch Time
s
0
0
0
0
4
wide/2
Not Specified
2017
7
4
11
10
6
0
21
Casa Info Follows
1
Calib M = 282.478 A = 284.6 BE ADD
6
annot text peak Data 1202.57 2242 RGB(0,0,0) Font(14,18,0,0,Times New Roman) Vertical
C 1s
annot text peak Data 505 3113 RGB(0,0,0) Font(14,18,0,0,Times New Roman) Vertical
O KLL
annot text peak Data 954.568 875 RGB(0,0,0) Font(14,18,0,0,Times New Roman) Vertical
O 1s
annot text peak Data 642 3053 RGB(0,0,0) Font(14,18,0,0,Times New Roman) Vertical
F KLL
annot text peak Data 798.568 15871 RGB(0,0,0) Font(14,18,0,0,Times New Roman) Vertical
F 1s
annot text peak Data 1452.57 576 RGB(0,0,0) Font(14,18,0,0,Times New Roman) Vertical
F 2s
0
0
   XPS     Spectrum    Lens Mode:Hybrid   Resolution:Pass energy 80    Iris(Aper):slot(Slot)
   Acqn. Time(s): 110        Sweeps: 1        Anode:Mono(Al (Mono))(150 W)   Step(meV): 1000.0
   Dwell Time(ms): 100        Charge Neutraliser :On   Acquired On :17/07/04 11:10:06
XPS
53
7
0
Mono(Al (Mono))
1486.69
150
1e+037
1e+037
6000
6000
1e+037
1e+037
FAT
80
1e+037
-4.45
0
1e+037
1e+037
1e+037
1e+037
Wide
None
-1
Kinetic Energy
eV
386.69
1
2
Intensity
d
Transmission
d
pulse counting
0.1
1
0
1e+037
1e+037
1e+037
0
2202
0
15871
8.48115
10.2364
2857
10.2364
2809
10.2286
2808
10.2207
2753
10.2129
2751
10.2051
2779
10.1972
2788
10.1894
2790
10.1815
2763
10.1737
2807
10.1658
2838
10.158
2759
10.1502
2773
10.1423
2810
10.1345
2768
10.1266
2782
10.1188
2816
10.1109
2779
10.1031
2855
10.0953
2746
10.0874
2758
10.0796
2810
10.0717
2752
10.0639
2747
10.056
2852
10.0492
2832
10.0427
2828
10.0362
2808
10.0296
2793
10.0231
2781
10.0166
2762
10.0101
2876
10.0035
2896
9.997
2791
9.99047
2844
9.98395
2834
9.97742
2835
9.97089
2849
9.96436
2852
9.95784
2949
9.95131
2879
9.94478
2803
9.93825
2897
9.93173
2881
9.9252
2843
9.91867
2809
9.91215
2827
9.90562
2875
9.89909
2910
9.89256
2883
9.88604
2893
9.87951
2822
9.87298
2771
9.86645
2791
9.85993
2893
9.8534
2882
9.84687
2875
9.84034
2957
9.83382
2954
9.82729
2886
9.82076
2912
9.81423
2878
9.80771
2885
9.80118
2906
9.79465
2910
9.78813
2895
9.7816
2919
9.77507
2848
9.76854
2813
9.76202
2935
9.75549
3026
9.74896
2884
9.74243
2890
9.73591
2970
9.72938
2971
9.72439
2961
9.71983
2980
9.71527
3014
9.71071
2903
9.70615
2905
9.7016
2976
9.69704
2934
9.69248
2971
9.68792
2978
9.68336
2949
9.67881
2959
9.67425
2964
9.66969
3020
9.66513
3027
9.66057
2952
9.65602
2992
9.65146
3118
9.6469
2941
9.64234
3008
9.63778
3043
9.63322
3017
9.62867
3063
9.62411
3010
9.61955
3029
9.61499
3100
9.61043
3094
9.60588
3099
9.60132
3051
9.59676
3029
9.5922
3020
9.58764
3058
9.58309
3023
9.57853
3031
9.57397
3070
9.56941
2978
9.56485
3045
9.56029
3099
9.55574
3058
9.55118
3026
9.54662
3095
9.54206
3026
9.5375
3012
9.53294
3162
9.52839
3062
9.52383
2994
9.51927
3113
9.51471
3077
9.51015
3109
9.5056
3193
9.50104
3152
9.4966
3081
9.49219
3120
9.48778
3089
9.48337
3142
9.47896
3109
9.47455
3093
9.47014
3091
9.46573
3148
9.46132
3018
9.45691
3094
9.45251
3056
9.4481
3026
9.44369
3136
9.43928
3188
9.43487
3068
9.43046
3113
9.42605
3174
9.42164
3151
9.41723
3052
9.41282
3124
9.40841
3132
9.40401
3247
9.3996
3102
9.39519
3111
9.39078
3131
9.38637
3093
9.38196
3052
9.37755
3085
9.37314
3082
9.36873
3117
9.36432
3108
9.35992
3115
9.35551
3163
9.3511
3152
9.34669
3174
9.34228
3147
9.33787
3193
9.33346
3141
9.32905
3160
9.32464
3195
9.32023
3133
9.31583
3176
9.31142
3170
9.30701
3168
9.3026
3144
9.29819
3203
9.29378
3214
9.28937
3197
9.28496
3153
9.28055
3212
9.27708
3240
9.27386
3235
9.27065
3228
9.26744
3175
9.26422
3190
9.26101
3240
9.2578
3184
9.25458
3287
9.25137
3289
9.24816
3191
9.24494
3256
9.24173
3310
9.23852
3343
9.2353
3311
9.23209
3275
9.22888
3345
9.22566
3306
9.22245
3253
9.21924
3287
9.21602
3299
9.21281
3280
9.2096
3260
9.20638
3321
9.20317
3370
9.19996
3361
9.19674
3376
9.19353
3346
9.19032
3322
9.1871
3369
9.18389
3370
9.18068
3341
9.17746
3368
9.17425
3347
9.17104
3313
9.16782
3359
9.16461
3385
9.1614
3354
9.15818
3446
9.15497
3405
9.15176
3463
9.14854
3451
9.14533
3454
9.14212
3522
9.1389
3458
9.13569
3523
9.13247
3525
9.12926
3546
9.12605
3561
9.12284
3709
9.11962
3606
9.11731
3527
9.11525
3528
9.11319
3485
9.11112
3452
9.10906
3445
9.107
3508
9.10494
3394
9.10288
3461
9.10082
3537
9.09876
3384
9.0967
3399
9.09464
3644
9.09258
3585
9.09052
3677
9.08845
3802
9.08639
3996
9.08433
4089
9.08227
4080
9.08021
4115
9.07815
3930
9.07609
3967
9.07403
3771
9.07197
3772
9.06991
3662
9.06785
3639
9.06578
3576
9.06372
3479
9.06166
3436
9.0596
3299
9.05754
3204
9.05548
3193
9.05342
3068
9.05136
3053
9.0493
3061
9.04724
3112
9.04518
3131
9.04311
3138
9.04105
3203
9.03899
3307
9.03693
3632
9.03487
4020
9.03281
4498
9.03075
4951
9.02869
5347
9.02663
5579
9.02457
5436
9.0225
4970
9.02044
4619
9.01838
4166
9.01632
3805
9.01335
3533
9.01012
3196
9.0069
2938
9.00367
2817
9.00044
2613
8.99721
2434
8.99398
2327
8.99076
2142
8.98753
2132
8.9843
2158
8.98107
2106
8.97784
2001
8.97462
2004
8.97139
2068
8.96816
2028
8.96493
2019
8.9617
1995
8.95848
1949
8.95525
1955
8.95202
1979
8.94879
1969
8.94556
2006
8.94234
1956
8.93911
2003
8.93588
1987
8.93265
1970
8.92942
1955
8.9262
2008
8.92297
2008
8.91974
2011
8.91651
2065
8.91328
2001
8.91006
1930
8.90683
1959
8.9036
1955
8.90037
1976
8.89714
2115
8.89392
2020
8.89069
1992
8.88746
1971
8.88483
1991
8.88236
1953
8.8799
2004
8.87743
2028
8.87497
2026
8.87251
2018
8.87004
1954
8.86758
1975
8.86511
1995
8.86265
1981
8.86019
1968
8.85772
2053
8.85526
2005
8.85279
1932
8.85033
2045
8.84786
2052
8.8454
2046
8.84294
1955
8.84047
1943
8.83801
1994
8.83554
2028
8.83308
2073
8.83062
1988
8.82815
2066
8.82569
2025
8.82322
1985
8.82076
2044
8.81829
2007
8.81583
2040
8.81337
2047
8.8109
2025
8.80844
2037
8.80597
2071
8.80351
2102
8.80104
2074
8.79858
2081
8.79612
2031
8.79365
2057
8.79119
2051
8.78872
2032
8.78626
2117
8.7838
2054
8.78133
2064
8.77887
2046
8.7764
2055
8.77394
2088
8.77147
2136
8.76901
2118
8.76655
2116
8.76408
2026
8.76162
2089
8.75915
2059
8.75669
2015
8.75422
2006
8.75176
1999
8.7493
1988
8.74683
1995
8.74437
2008
8.7419
2005
8.73944
1974
8.73885
2046
8.73879
2120
8.73873
2113
8.73867
2162
8.73861
2199
8.73855
2226
8.73849
2243
8.73843
2232
8.73837
2268
8.73831
2289
8.73825
2205
8.73819
2236
8.73813
2207
8.73806
2222
8.738
2254
8.73794
2143
8.73788
2159
8.73782
2175
8.73776
2136
8.7377
2058
8.73764
1918
8.73758
1835
8.73752
1803
8.73746
1686
8.7374
1612
8.73734
1511
8.73728
1458
8.73722
1356
8.73716
1280
8.7371
1132
8.73704
1032
8.73698
924
8.73692
853
8.73686
894
8.7368
976
8.73674
1110
8.73668
1785
8.73662
4763
8.73655
12776
8.73649
15871
8.73643
7326
8.73637
2110
8.73631
1076
8.73625
777
8.73619
693
8.73613
671
8.73607
628
8.73601
651
8.73595
635
8.73589
623
8.73468
618
8.73314
636
8.73161
643
8.73007
643
8.72854
629
8.727
604
8.72547
629
8.72393
669
8.7224
645
8.72086
615
8.71933
604
8.71779
589
8.71626
613
8.71472
640
8.71319
691
8.71165
643
8.71012
616
8.70858
649
8.70705
620
8.70551
611
8.70398
623
8.70244
601
8.70091
598
8.69937
613
8.69784
632
8.6963
617
8.69477
589
8.69323
626
8.6917
622
8.69016
618
8.68863
606
8.68709
635
8.68556
607
8.68402
643
8.68249
602
8.68095
580
8.67942
614
8.67788
615
8.67635
655
8.67481
650
8.67328
651
8.67174
657
8.67021
663
8.66867
605
8.66714
665
8.6656
625
8.66407
619
8.66253
638
8.661
621
8.65946
636
8.65793
620
8.65639
622
8.65486
626
8.65332
599
8.65179
646
8.65025
636
8.64872
644
8.64718
604
8.64565
610
8.64411
643
8.64417
628
8.64468
632
8.64518
626
8.64569
646
8.6462
640
8.6467
627
8.64721
635
8.64772
646
8.64822
666
8.64873
645
8.64924
654
8.64974
676
8.65025
651
8.65075
637
8.65126
639
8.65177
605
8.65228
608
8.65278
642
8.65329
653
8.65379
660
8.6543
641
8.65481
636
8.65531
673
8.65582
643
8.65633
624
8.65683
632
8.65734
651
8.65785
646
8.65835
645
8.65886
636
8.65937
660
8.65987
682
8.66038
658
8.66089
662
8.66139
615
8.6619
650
8.66241
651
8.66291
634
8.66342
654
8.66393
644
8.66317
632
8.66206
654
8.66095
640
8.65984
680
8.65872
654
8.65761
667
8.6565
685
8.65539
648
8.65428
655
8.65317
664
8.65206
662
8.65094
677
8.64983
652
8.64872
652
8.64761
673
8.6465
680
8.64539
651
8.64428
654
8.64317
662
8.64205
688
8.64094
689
8.63983
682
8.63872
666
8.63761
679
8.6365
683
8.63539
674
8.63427
639
8.63316
693
8.63205
668
8.63094
663
8.62983
661
8.62872
688
8.62761
660
8.6265
655
8.62538
682
8.62427
627
8.62316
635
8.62205
675
8.62094
681
8.61983
677
8.61872
645
8.6176
641
8.61649
710
8.61538
729
8.61427
832
8.61316
875
8.61205
812
8.61094
720
8.60983
644
8.60871
633
8.6076
634
8.60649
644
8.60538
646
8.60427
654
8.60316
628
8.60205
638
8.60093
642
8.59982
663
8.59871
627
8.5976
611
8.59692
641
8.59635
648
8.59579
625
8.59522
668
8.59466
671
8.5941
665
8.59353
632
8.59297
654
8.5924
629
8.59184
617
8.59128
597
8.59071
630
8.59015
680
8.58958
668
8.58902
627
8.58846
648
8.58789
660
8.58733
687
8.58676
698
8.5862
653
8.58564
624
8.58507
634
8.58451
641
8.58394
685
8.58338
643
8.58282
669
8.58225
652
8.58169
628
8.58112
643
8.58056
657
8.58
662
8.57943
644
8.57887
661
8.5783
646
8.57774
615
8.57718
666
8.57661
651
8.57605
604
8.57548
650
8.57492
670
8.57413
660
8.57328
666
8.57243
656
8.57158
655
8.57074
627
8.56989
643
8.56904
666
8.56819
694
8.56734
660
8.56649
668
8.56564
656
8.56479
685
8.56394
661
8.56309
681
8.56224
682
8.56139
646
8.56055
635
8.5597
674
8.55885
650
8.558
645
8.55715
680
8.5563
654
8.55545
690
8.5546
703
8.55375
702
8.5529
723
8.55205
672
8.5512
665
8.55035
641
8.54951
717
8.54866
685
8.54781
684
8.54696
675
8.54611
670
8.54526
679
8.54441
692
8.54356
676
8.54271
686
8.54186
663
8.54101
667
8.54016
703
8.53932
691
8.53847
715
8.53762
718
8.53677
670
8.53592
684
8.53507
704
8.53422
683
8.53337
665
8.53252
692
8.5335
702
8.535
689
8.5365
687
8.538
738
8.5395
700
8.541
711
8.5425
679
8.544
710
8.5455
715
8.547
716
8.5485
676
8.55
701
8.5515
709
8.553
740
8.5545
712
8.556
694
8.5575
700
8.55899
700
8.56049
678
8.56199
707
8.56349
658
8.56499
713
8.56649
734
8.56799
695
8.56949
668
8.57099
723
8.57249
762
8.57399
741
8.57549
699
8.57699
731
8.57849
731
8.57999
732
8.58149
677
8.58298
700
8.58448
722
8.58598
667
8.58748
702
8.58898
692
8.59048
701
8.59198
679
8.59135
701
8.59011
686
8.58887
680
8.58763
697
8.58639
708
8.58515
741
8.58392
721
8.58268
742
8.58144
737
8.5802
717
8.57896
717
8.57773
717
8.57649
745
8.57525
681
8.57401
676
8.57277
728
8.57154
765
8.5703
746
8.56906
777
8.56782
727
8.56658
725
8.56534
727
8.56411
757
8.56287
738
8.56163
721
8.56039
753
8.55915
770
8.55792
777
8.55668
747
8.55544
751
8.5542
801
8.55296
768
8.55173
781
8.55049
765
8.54925
774
8.54801
741
8.54677
748
8.54553
760
8.5443
758
8.54306
788
8.54182
745
8.54058
758
8.53934
765
8.53811
770
8.53687
825
8.53563
796
8.53439
788
8.53315
752
8.53191
804
8.53068
816
8.52944
754
8.5282
771
8.52696
780
8.52572
803
8.52449
751
8.52325
752
8.52201
770
8.52077
786
8.51953
791
8.5183
749
8.51706
773
8.51582
778
8.51458
839
8.51334
838
8.5121
844
8.51087
894
8.50963
895
8.50839
862
8.50715
894
8.50591
866
8.50468
821
8.50344
862
8.5022
875
8.50096
860
8.49972
843
8.49849
828
8.49725
792
8.49601
803
8.49477
799
8.49353
725
8.49229
687
8.49106
720
8.48982
681
8.48858
685
8.48734
577
8.4861
592
8.48487
554
8.48363
535
8.48239
471
8.48115
391
8.4832
341
8.48617
332
8.48914
335
8.49212
359
8.49509
439
8.49806
815
8.50104
1580
8.50401
3788
8.50698
3685
8.50995
1328
8.51293
743
8.5159
1007
8.51887
1923
8.52185
2242
8.52482
825
8.52779
195
8.53077
113
8.53374
132
8.53671
116
8.53969
124
8.54266
111
8.54563
82
8.5486
106
8.55158
109
8.55455
101
8.55752
104
8.5605
101
8.56347
119
8.56644
107
8.56942
96
8.57239
106
8.57536
86
8.57833
103
8.58131
110
8.58428
100
8.58725
128
8.59023
120
8.5932
108
8.59617
101
8.59915
119
8.60212
96
8.60509
107
8.60806
103
8.61104
107
8.61401
115
8.61698
101
8.61996
107
8.62293
94
8.6259
96
8.62888
100
8.63012
105
8.63087
103
8.63163
114
8.63238
98
8.63314
112
8.63389
102
8.63465
110
8.6354
112
8.63616
100
8.63691
117
8.63767
101
8.63842
123
8.63918
110
8.63993
123
8.64069
129
8.64144
116
8.64219
114
8.64295
117
8.6437
105
8.64446
103
8.64521
133
8.64597
110
8.64672
116
8.64748
93
8.64823
92
8.64899
123
8.64974
102
8.6505
98
8.65125
111
8.65201
102
8.65276
115
8.65352
120
8.65427
114
8.65503
102
8.65578
95
8.65654
115
8.65729
117
8.65804
115
8.6588
117
8.65955
110
8.66031
102
8.66106
131
8.66182
119
8.66257
119
8.66333
123
8.66408
124
8.66484
112
8.66559
113
8.66635
124
8.6671
121
8.66786
107
8.66861
120
8.66937
117
8.67012
125
8.67088
109
8.67163
113
8.67239
117
8.67314
109
8.6739
127
8.67465
121
8.6743
134
8.67363
114
8.67297
101
8.6723
115
8.67163
107
8.67097
100
8.6703
111
8.66964
125
8.66897
134
8.6683
103
8.66764
144
8.66697
112
8.66631
131
8.66564
131
8.66498
119
8.66431
131
8.66364
130
8.66298
140
8.66231
109
8.66165
127
8.66098
115
8.66032
116
8.65965
102
8.65898
116
8.65832
120
8.65765
133
8.65699
133
8.65632
143
8.65565
123
8.65499
124
8.65432
118
8.65366
109
8.65299
138
8.65233
152
8.65166
160
8.65099
163
8.65033
129
8.64966
122
8.649
122
8.64833
110
8.64767
119
8.647
123
8.64633
117
8.64567
123
8.645
104
8.64434
117
8.64367
107
8.643
110
8.64234
135
8.64167
126
8.64101
123
8.64034
140
8.63968
131
8.63901
111
8.63834
106
8.63768
115
8.6398
105
8.64272
120
8.64563
139
8.64854
109
8.65146
124
8.65437
119
8.65728
149
8.6602
136
8.66311
120
8.66602
132
8.66894
136
8.67185
138
8.67476
117
8.67768
119
8.68059
135
8.6835
121
8.68642
133
8.68933
130
8.69224
108
8.69516
116
8.69807
107
8.70098
135
8.7039
130
8.70681
140
8.70972
112
8.71264
126
8.71555
135
8.71846
145
8.72137
145
8.72429
170
8.7272
149
8.73011
137
8.73303
133
8.73594
122
8.73885
147
8.74177
135
8.74468
140
8.74759
146
8.75051
137
8.75342
147
8.75633
159
8.75925
128
8.76216
126
8.76507
105
8.76799
129
8.7709
129
8.77381
148
8.77673
130
8.77964
131
8.78255
147
8.78547
146
8.78838
143
8.79129
137
8.79421
147
8.79712
128
8.80003
142
8.80295
143
8.80586
151
8.80877
145
8.81169
144
8.8146
154
8.81751
153
8.82043
140
8.82334
139
8.82625
159
8.82916
129
8.83208
151
8.83499
144
8.8379
155
8.84082
144
8.84373
161
8.84664
139
8.84956
130
8.85247
140
8.85538
143
8.8583
159
8.86121
152
8.86412
149
8.86704
136
8.86995
144
8.87286
150
8.87578
133
8.87869
130
8.8816
134
8.88452
116
8.88743
118
8.89034
132
8.89326
122
8.89617
111
8.89908
101
8.902
110
8.90491
113
8.90782
129
8.91074
161
8.91365
200
8.91656
312
8.91948
457
8.92239
576
8.9253
488
8.92822
291
8.93113
193
8.93404
136
8.93695
100
8.93987
72
8.94051
62
8.94051
59
8.94051
65
8.94051
68
8.94051
73
8.94051
93
8.94051
108
8.94051
123
8.94051
105
8.94051
86
8.94051
101
8.94051
120
8.94051
135
8.94051
133
8.94051
143
8.94051
113
8.94051
129
8.94051
163
8.94051
127
8.94051
75
8.94051
61
8.94051
33
8.94051
24
8.94051
7
8.94051
2
8.94051
0
8.94051
F 1s/5
Not Specified
2017
7
4
14
17
31
0
9
Casa Info Follows
1
Calib M = 282.478 A = 284.6 BE ADD
0
0
0
   XPS     Spectrum    Lens Mode:Hybrid   Resolution:Pass energy 40    Iris(Aper):slot(Slot)
   Acqn. Time(s): 121        Sweeps: 2        Anode:Mono(Al (Mono))(150 W)   Step(meV): 50.0  
   Dwell Time(ms): 150        Charge Neutraliser :On   Acquired On :17/07/04 14:17:31
XPS
53
7
0
Mono(Al (Mono))
1486.69
150
1e+037
1e+037
6000
6000
1e+037
1e+037
FAT
40
1e+037
-4.45
0
1e+037
1e+037
1e+037
1e+037
F
1s
-1
Kinetic Energy
eV
790.64
0.05
2
Intensity
d
Transmission
d
pulse counting
0.15
2
0
1e+037
1e+037
1e+037
0
806
700
25446
3.41724
3.42712
1276
3.42712
1287
3.4271
1227
3.42707
1252
3.42705
1201
3.42702
1248
3.427
1232
3.42698
1177
3.42695
1235
3.42693
1202
3.4269
1213
3.42688
1172
3.42686
1187
3.42683
1191
3.42681
1215
3.42678
1127
3.42676
1153
3.42674
1112
3.42671
1109
3.42669
1116
3.42667
1107
3.42664
1141
3.42662
1082
3.42659
1111
3.42657
1063
3.42655
1050
3.42652
1038
3.4265
1082
3.42647
1059
3.42645
1042
3.42643
1067
3.4264
1024
3.42638
1008
3.42636
996
3.42633
1011
3.42631
1008
3.42628
973
3.42626
1020
3.42624
986
3.42621
975
3.42619
995
3.42616
969
3.42614
1035
3.42612
991
3.42609
974
3.42607
1027
3.42605
990
3.42602
1012
3.426
1037
3.42597
953
3.42595
1019
3.42593
1023
3.4259
1000
3.42588
1010
3.42585
963
3.42583
971
3.42581
973
3.42578
941
3.42576
991
3.42573
1001
3.42571
1013
3.42569
989
3.42566
972
3.42564
973
3.42562
1065
3.42559
1037
3.42557
1049
3.42554
979
3.42552
981
3.4255
1009
3.42547
1024
3.42545
1003
3.42542
978
3.4254
1003
3.42538
998
3.42535
1007
3.42533
1031
3.42531
1009
3.42528
964
3.42526
983
3.42523
1025
3.42521
1033
3.42519
1005
3.42516
1029
3.42514
1012
3.42511
996
3.42509
998
3.42507
1026
3.42504
1040
3.42502
1050
3.425
1061
3.42497
1014
3.42495
980
3.42492
1076
3.4249
998
3.42488
992
3.42485
1055
3.42483
1077
3.4248
1079
3.42478
1093
3.42476
1090
3.42473
1071
3.42471
1089
3.42469
1055
3.42466
1022
3.42464
1091
3.42461
1083
3.42459
1116
3.42457
1148
3.42454
1115
3.42452
1117
3.42449
1134
3.42447
1101
3.42445
1133
3.42442
1185
3.4244
1162
3.42437
1172
3.42435
1172
3.42433
1165
3.4243
1187
3.42428
1147
3.42426
1203
3.42423
1227
3.42421
1218
3.42418
1231
3.42416
1222
3.42414
1209
3.42411
1299
3.42409
1292
3.42406
1308
3.42404
1288
3.42402
1364
3.42399
1395
3.42397
1398
3.42395
1401
3.42392
1429
3.4239
1456
3.42387
1493
3.42385
1564
3.42383
1536
3.4238
1562
3.42378
1690
3.42375
1709
3.42373
1812
3.42371
1884
3.42368
1910
3.42366
1930
3.42364
2067
3.42361
2199
3.42359
2259
3.42356
2447
3.42354
2513
3.42352
2720
3.42349
2950
3.42347
3098
3.42344
3276
3.42342
3465
3.4234
3795
3.42337
4082
3.42335
4395
3.42333
4774
3.4233
4971
3.42328
5482
3.42325
6009
3.42323
6461
3.42321
7018
3.42318
7682
3.42316
8232
3.42313
8768
3.42311
9497
3.42309
10358
3.42306
11048
3.42304
11852
3.42301
12719
3.42299
13886
3.42297
14735
3.42294
15637
3.42292
16597
3.4229
17666
3.42287
18624
3.42285
19595
3.42282
20301
3.4228
21288
3.42278
21910
3.42275
22815
3.42273
23467
3.4227
24334
3.42268
24607
3.42266
25198
3.42263
25386
3.42261
25446
3.42259
25250
3.42256
25086
3.42254
25081
3.42251
24642
3.42249
24364
3.42247
23540
3.42244
22956
3.42242
21969
3.42239
21102
3.42237
20544
3.42235
19642
3.42232
18546
3.4223
17381
3.42228
16345
3.42225
15425
3.42223
14388
3.4222
13402
3.42218
12336
3.42216
11474
3.42213
10727
3.42211
9743
3.42208
8975
3.42206
8334
3.42204
7561
3.42201
6904
3.42199
6375
3.42196
5877
3.42194
5413
3.42192
5072
3.42189
4790
3.42187
4310
3.42185
4024
3.42182
3726
3.4218
3610
3.42177
3317
3.42175
3039
3.42173
2792
3.4217
2801
3.42168
2560
3.42165
2419
3.42163
2323
3.42161
2196
3.42158
2042
3.42156
1936
3.42154
1998
3.42151
1866
3.42149
1715
3.42146
1722
3.42144
1658
3.42142
1583
3.42139
1549
3.42137
1498
3.42134
1512
3.42132
1454
3.4213
1384
3.42127
1400
3.42125
1362
3.42123
1346
3.4212
1332
3.42118
1286
3.42115
1240
3.42113
1122
3.42111
1189
3.42108
1206
3.42106
1176
3.42103
1155
3.42101
1107
3.42099
1110
3.42096
1064
3.42094
1034
3.42091
1001
3.42089
1013
3.42087
1013
3.42084
1010
3.42082
977
3.4208
950
3.42077
885
3.42075
933
3.42072
924
3.4207
925
3.42068
906
3.42065
915
3.42063
884
3.4206
940
3.42058
902
3.42056
852
3.42053
918
3.42051
850
3.42049
822
3.42046
783
3.42044
826
3.42041
847
3.42039
808
3.42037
818
3.42034
830
3.42032
797
3.42029
808
3.42027
796
3.42025
844
3.42022
832
3.4202
802
3.42018
791
3.42015
852
3.42013
859
3.4201
833
3.42008
771
3.42006
746
3.42003
793
3.42001
828
3.41998
786
3.41996
790
3.41994
809
3.41991
765
3.41989
778
3.41986
768
3.41984
808
3.41982
755
3.41979
798
3.41977
781
3.41975
767
3.41972
776
3.4197
744
3.41967
756
3.41965
758
3.41963
741
3.4196
735
3.41958
791
3.41955
792
3.41953
778
3.41951
759
3.41948
769
3.41946
765
3.41944
771
3.41941
740
3.41939
767
3.41936
783
3.41934
774
3.41932
743
3.41929
766
3.41927
745
3.41924
765
3.41922
748
3.4192
726
3.41917
734
3.41915
779
3.41913
753
3.4191
755
3.41908
737
3.41905
721
3.41903
728
3.41901
724
3.41898
723
3.41896
747
3.41893
743
3.41891
771
3.41889
770
3.41886
727
3.41884
743
3.41881
788
3.41879
775
3.41877
734
3.41874
700
3.41872
761
3.4187
707
3.41867
732
3.41865
734
3.41862
710
3.4186
741
3.41858
748
3.41855
753
3.41853
756
3.4185
754
3.41848
734
3.41846
735
3.41843
708
3.41841
766
3.41839
736
3.41836
713
3.41834
752
3.41831
753
3.41829
724
3.41827
713
3.41824
746
3.41822
732
3.41819
731
3.41817
766
3.41815
734
3.41812
714
3.4181
720
3.41808
748
3.41805
722
3.41803
731
3.418
744
3.41798
731
3.41796
721
3.41793
737
3.4179
748
3.41786
744
3.41781
759
3.41777
744
3.41773
741
3.41769
767
3.41765
733
3.41761
702
3.41757
713
3.41753
709
3.41748
737
3.41744
760
3.4174
777
3.41736
738
3.41732
744
3.41728
757
3.41724
O 1s/6
Not Specified
2017
7
4
14
17
31
0
9
Casa Info Follows
1
Calib M = 282.478 A = 284.6 BE ADD
0
0
0
   XPS     Spectrum    Lens Mode:Hybrid   Resolution:Pass energy 40    Iris(Aper):slot(Slot)
   Acqn. Time(s): 162        Sweeps: 3        Anode:Mono(Al (Mono))(150 W)   Step(meV): 50.0  
   Dwell Time(ms): 150        Charge Neutraliser :On   Acquired On :17/07/04 14:17:31
XPS
53
7
0
Mono(Al (Mono))
1486.69
150
1e+037
1e+037
6000
6000
1e+037
1e+037
FAT
40
1e+037
-4.45
0
1e+037
1e+037
1e+037
1e+037
O
1s
-1
Kinetic Energy
eV
946.69
0.05
2
Intensity
d
Transmission
d
pulse counting
0.15
3
0
1e+037
1e+037
1e+037
0
722
1041
1711
3.32569
3.34183
1100
3.34183
1093
3.34178
1139
3.34174
1076
3.34169
1141
3.34165
1137
3.3416
1152
3.34156
1116
3.34151
1128
3.34147
1152
3.34142
1096
3.34138
1111
3.34133
1138
3.34129
1145
3.34124
1105
3.3412
1107
3.34115
1132
3.34111
1050
3.34107
1152
3.34102
1138
3.34098
1094
3.34093
1094
3.34089
1115
3.34084
1093
3.3408
1098
3.34075
1130
3.34071
1089
3.34066
1110
3.34062
1105
3.34057
1094
3.34053
1126
3.34048
1114
3.34044
1119
3.34039
1117
3.34035
1141
3.3403
1111
3.34026
1114
3.34021
1123
3.34017
1102
3.34012
1116
3.34008
1129
3.34003
1122
3.33999
1107
3.33994
1118
3.3399
1113
3.33985
1115
3.33981
1166
3.33976
1105
3.33972
1157
3.33968
1173
3.33963
1171
3.33959
1129
3.33954
1168
3.3395
1113
3.33945
1071
3.33941
1103
3.33936
1060
3.33932
1135
3.33927
1155
3.33923
1120
3.33918
1125
3.33914
1086
3.33909
1053
3.33905
1110
3.339
1165
3.33896
1142
3.33891
1099
3.33887
1121
3.33882
1148
3.33878
1093
3.33873
1094
3.33869
1142
3.33864
1129
3.3386
1163
3.33855
1148
3.33851
1127
3.33846
1070
3.33842
1095
3.33837
1062
3.33833
1132
3.33829
1139
3.33824
1136
3.3382
1080
3.33815
1103
3.33811
1086
3.33806
1146
3.33802
1090
3.33797
1117
3.33793
1111
3.33788
1110
3.33784
1088
3.33779
1124
3.33775
1072
3.3377
1126
3.33766
1123
3.33761
1134
3.33757
1137
3.33752
1141
3.33748
1077
3.33743
1150
3.33739
1115
3.33734
1132
3.3373
1089
3.33725
1142
3.33721
1135
3.33716
1127
3.33712
1162
3.33707
1124
3.33703
1120
3.33698
1170
3.33694
1167
3.3369
1170
3.33685
1132
3.33681
1181
3.33676
1188
3.33672
1128
3.33667
1180
3.33663
1163
3.33658
1116
3.33654
1150
3.33649
1132
3.33645
1150
3.3364
1163
3.33636
1167
3.33631
1186
3.33627
1199
3.33622
1174
3.33618
1191
3.33613
1197
3.33609
1196
3.33604
1199
3.336
1188
3.33595
1235
3.33591
1239
3.33586
1220
3.33582
1229
3.33577
1242
3.33573
1210
3.33568
1269
3.33564
1246
3.3356
1198
3.33555
1224
3.33551
1314
3.33546
1232
3.33542
1223
3.33537
1296
3.33533
1254
3.33528
1204
3.33524
1289
3.33519
1270
3.33515
1292
3.3351
1235
3.33506
1259
3.33501
1253
3.33497
1353
3.33492
1310
3.33488
1351
3.33483
1343
3.33479
1351
3.33474
1351
3.3347
1341
3.33465
1348
3.33461
1379
3.33456
1424
3.33452
1378
3.33447
1377
3.33443
1425
3.33438
1441
3.33434
1435
3.33429
1423
3.33425
1437
3.33421
1441
3.33416
1462
3.33412
1471
3.33407
1523
3.33403
1441
3.33398
1475
3.33394
1462
3.33389
1506
3.33385
1473
3.3338
1514
3.33376
1577
3.33371
1587
3.33367
1536
3.33362
1583
3.33358
1512
3.33353
1561
3.33349
1527
3.33344
1606
3.3334
1597
3.33335
1575
3.33331
1569
3.33326
1501
3.33322
1599
3.33317
1602
3.33313
1711
3.33308
1684
3.33304
1600
3.33299
1610
3.33295
1626
3.3329
1585
3.33286
1605
3.33282
1614
3.33277
1611
3.33273
1662
3.33268
1582
3.33264
1534
3.33259
1490
3.33255
1549
3.3325
1498
3.33246
1482
3.33241
1418
3.33237
1469
3.33232
1469
3.33228
1393
3.33223
1359
3.33219
1379
3.33214
1366
3.3321
1342
3.33205
1338
3.33201
1244
3.33196
1248
3.33192
1225
3.33187
1217
3.33183
1186
3.33178
1184
3.33174
1236
3.33169
1223
3.33165
1151
3.3316
1140
3.33156
1157
3.33151
1117
3.33147
1183
3.33143
1113
3.33138
1159
3.33134
1169
3.33129
1185
3.33125
1143
3.3312
1134
3.33116
1129
3.33111
1121
3.33107
1112
3.33102
1141
3.33098
1093
3.33093
1160
3.33089
1120
3.33084
1155
3.3308
1076
3.33075
1079
3.33071
1118
3.33066
1087
3.33062
1122
3.33057
1084
3.33053
1069
3.33048
1115
3.33044
1105
3.33039
1101
3.33035
1131
3.3303
1111
3.33026
1123
3.33021
1063
3.33017
1095
3.33012
1124
3.33008
1127
3.33004
1120
3.32999
1127
3.32995
1115
3.3299
1084
3.32986
1099
3.32981
1167
3.32977
1070
3.32972
1092
3.32968
1098
3.32963
1149
3.32959
1102
3.32954
1129
3.3295
1104
3.32945
1160
3.32941
1128
3.32936
1161
3.32932
1132
3.32927
1185
3.32923
1105
3.32918
1090
3.32914
1114
3.32909
1162
3.32905
1125
3.329
1086
3.32896
1127
3.32891
1064
3.32887
1125
3.32882
1111
3.32878
1110
3.32873
1132
3.32869
1090
3.32865
1118
3.3286
1041
3.32856
1109
3.32851
1184
3.32847
1096
3.32842
1094
3.32838
1091
3.32833
1081
3.32829
1104
3.32824
1092
3.3282
1073
3.32815
1171
3.32811
1160
3.32806
1122
3.32802
1106
3.32797
1148
3.32793
1163
3.32788
1153
3.32784
1064
3.32779
1113
3.32775
1148
3.3277
1123
3.32766
1115
3.32761
1091
3.32757
1094
3.32752
1102
3.32748
1148
3.32743
1100
3.32739
1128
3.32735
1120
3.3273
1129
3.32726
1087
3.32721
1112
3.32717
1117
3.32712
1114
3.32708
1054
3.32703
1142
3.32699
1123
3.32694
1192
3.3269
1095
3.32685
1075
3.32681
1080
3.32676
1049
3.32672
1102
3.32667
1169
3.32663
1085
3.32658
1128
3.32654
1180
3.32649
1134
3.32645
1091
3.3264
1110
3.32636
1180
3.32631
1085
3.32627
1099
3.32622
1104
3.32618
1157
3.32613
1141
3.32609
1089
3.32604
1080
3.326
1138
3.32596
1097
3.32591
1125
3.32587
1120
3.32582
1133
3.32578
1119
3.32573
1100
3.32569
C 1s/7
Not Specified
2017
7
4
14
17
31
0
9
Casa Info Follows
1
Calib M = 282.478 A = 284.6 BE ADD
0
0
0
   XPS     Spectrum    Lens Mode:Hybrid   Resolution:Pass energy 40    Iris(Aper):slot(Slot)
   Acqn. Time(s): 138        Sweeps: 2        Anode:Mono(Al (Mono))(150 W)   Step(meV): 50.0  
   Dwell Time(ms): 150        Charge Neutraliser :On   Acquired On :17/07/04 14:17:31
XPS
53
7
0
Mono(Al (Mono))
1486.69
150
1e+037
1e+037
6000
6000
1e+037
1e+037
FAT
40
1e+037
-4.45
0
1e+037
1e+037
1e+037
1e+037
C
1s
-1
Kinetic Energy
eV
1190.19
0.05
2
Intensity
d
Transmission
d
pulse counting
0.15
2
0
1e+037
1e+037
1e+037
0
922
95
7341
3.16755
3.19198
445
3.16755
473
3.1676
423
3.16765
436
3.16771
412
3.16776
431
3.16781
442
3.16787
425
3.16792
459
3.16797
425
3.16802
429
3.16808
428
3.16813
389
3.16818
419
3.16824
434
3.16829
391
3.16834
432
3.1684
422
3.16845
397
3.1685
398
3.16856
411
3.16861
387
3.16866
368
3.16871
396
3.16877
407
3.16882
392
3.16887
382
3.16893
384
3.16898
421
3.16903
379
3.16909
376
3.16914
398
3.16919
368
3.16925
378
3.1693
342
3.16935
368
3.16941
367
3.16946
388
3.16951
362
3.16956
367
3.16962
368
3.16967
335
3.16972
348
3.16978
371
3.16983
358
3.16988
380
3.16994
365
3.16999
315
3.17004
335
3.1701
357
3.17015
350
3.1702
361
3.17025
362
3.17031
382
3.17036
380
3.17041
362
3.17047
373
3.17052
338
3.17057
333
3.17063
375
3.17068
367
3.17073
325
3.17079
312
3.17084
348
3.17089
324
3.17095
330
3.171
347
3.17105
340
3.1711
338
3.17116
360
3.17121
351
3.17126
351
3.17132
342
3.17137
342
3.17142
332
3.17148
325
3.17153
335
3.17158
342
3.17164
378
3.17169
346
3.17174
317
3.17179
337
3.17185
367
3.1719
363
3.17195
363
3.17201
347
3.17206
356
3.17211
344
3.17217
377
3.17222
365
3.17227
363
3.17233
362
3.17238
348
3.17243
407
3.17249
386
3.17254
340
3.17259
382
3.17264
387
3.1727
383
3.17275
391
3.1728
368
3.17286
382
3.17291
389
3.17296
414
3.17302
421
3.17307
426
3.17312
425
3.17318
457
3.17323
460
3.17328
434
3.17334
469
3.17339
489
3.17344
445
3.17349
469
3.17355
474
3.1736
504
3.17365
523
3.17371
562
3.17376
564
3.17381
565
3.17387
616
3.17392
624
3.17397
647
3.17403
692
3.17408
727
3.17413
772
3.17418
804
3.17424
874
3.17429
842
3.17434
923
3.1744
1015
3.17445
1042
3.1745
1039
3.17456
1036
3.17461
1046
3.17466
1072
3.17472
1073
3.17477
1095
3.17482
1156
3.17488
1122
3.17493
1144
3.17498
1127
3.17503
1115
3.17509
1135
3.17514
1129
3.17519
1154
3.17525
1180
3.1753
1298
3.17535
1275
3.17541
1358
3.17546
1408
3.17551
1433
3.17557
1599
3.17562
1695
3.17567
1828
3.17572
1999
3.17578
2198
3.17583
2341
3.17588
2611
3.17594
2892
3.17599
3158
3.17604
3457
3.1761
3782
3.17615
4147
3.1762
4406
3.17626
4773
3.17631
5088
3.17636
5465
3.17642
5862
3.17647
6247
3.17652
6460
3.17657
6731
3.17663
6883
3.17668
6963
3.17673
7341
3.17679
7252
3.17684
7199
3.17689
7194
3.17695
6989
3.177
6694
3.17705
6502
3.17711
6246
3.17716
5914
3.17721
5503
3.17726
5202
3.17732
4864
3.17737
4517
3.17742
4120
3.17748
3735
3.17753
3394
3.17758
3210
3.17764
2875
3.17769
2600
3.17774
2424
3.1778
2266
3.17785
2053
3.1779
1866
3.17796
1708
3.17801
1515
3.17806
1418
3.17811
1358
3.17817
1281
3.17822
1183
3.17827
1096
3.17833
1045
3.17838
990
3.17843
934
3.17849
890
3.17854
863
3.17859
813
3.17865
800
3.1787
769
3.17875
768
3.17881
696
3.17886
750
3.17891
674
3.17896
665
3.17902
711
3.17907
707
3.17912
673
3.17918
671
3.17923
651
3.17928
648
3.17934
658
3.17939
671
3.17944
697
3.1795
686
3.17955
670
3.1796
689
3.17965
701
3.17971
771
3.17976
756
3.17981
712
3.17987
751
3.17992
789
3.17997
792
3.18003
804
3.18008
801
3.18013
849
3.18019
848
3.18024
879
3.18029
894
3.18035
921
3.1804
953
3.18045
962
3.1805
980
3.18056
1055
3.18061
1037
3.18066
1054
3.18072
1079
3.18077
1133
3.18082
1120
3.18088
1198
3.18093
1228
3.18098
1224
3.18104
1226
3.18109
1345
3.18114
1301
3.1812
1365
3.18125
1450
3.1813
1580
3.18135
1619
3.18141
1706
3.18146
1813
3.18151
1901
3.18157
2000
3.18162
2134
3.18167
2230
3.18173
2335
3.18178
2564
3.18183
2659
3.18189
2748
3.18194
2940
3.18199
3008
3.18204
3165
3.1821
3386
3.18215
3421
3.1822
3666
3.18226
3726
3.18231
3836
3.18236
3821
3.18242
3962
3.18247
3919
3.18252
3838
3.18258
3697
3.18263
3661
3.18268
3370
3.18274
3143
3.18279
2992
3.18284
2808
3.18289
2488
3.18295
2321
3.183
2165
3.18305
1946
3.18311
1701
3.18316
1426
3.18321
1335
3.18327
1154
3.18332
1027
3.18337
912
3.18343
754
3.18348
694
3.18353
632
3.18358
547
3.18364
512
3.18369
469
3.18374
442
3.1838
388
3.18385
351
3.1839
318
3.18396
296
3.18401
277
3.18406
259
3.18412
230
3.18417
218
3.18422
216
3.18428
225
3.18433
196
3.18438
174
3.18443
189
3.18449
186
3.18454
168
3.18459
160
3.18465
154
3.1847
151
3.18475
184
3.18481
182
3.18486
139
3.18491
149
3.18497
154
3.18502
163
3.18507
140
3.18512
144
3.18518
130
3.18523
159
3.18528
141
3.18534
140
3.18539
147
3.18544
135
3.1855
130
3.18555
136
3.1856
146
3.18566
123
3.18571
138
3.18576
124
3.18582
141
3.18587
133
3.18592
142
3.18597
127
3.18603
125
3.18608
129
3.18613
128
3.18619
138
3.18624
118
3.18629
128
3.18635
117
3.1864
125
3.18645
117
3.18651
144
3.18656
134
3.18661
148
3.18667
127
3.18672
138
3.18677
141
3.18682
134
3.18688
125
3.18693
132
3.18698
125
3.18704
122
3.18709
134
3.18714
126
3.1872
135
3.18725
140
3.1873
108
3.18736
121
3.18741
128
3.18746
146
3.18751
138
3.18757
151
3.18762
147
3.18767
110
3.18773
120
3.18778
108
3.18783
118
3.18789
119
3.18794
118
3.18799
127
3.18805
119
3.1881
131
3.18815
122
3.18821
117
3.18826
122
3.18831
118
3.18836
125
3.18842
134
3.18847
125
3.18852
110
3.18858
112
3.18863
119
3.18868
117
3.18874
119
3.18879
124
3.18884
110
3.1889
125
3.18895
122
3.189
111
3.18905
123
3.18911
112
3.18916
115
3.18921
132
3.18927
107
3.18932
116
3.18937
126
3.18943
135
3.18948
117
3.18953
124
3.18959
109
3.18964
122
3.18969
101
3.18975
126
3.1898
125
3.18985
144
3.1899
111
3.18996
126
3.19001
120
3.19006
109
3.19012
126
3.19017
130
3.19022
136
3.19028
126
3.19033
118
3.19038
121
3.19044
123
3.19049
104
3.19054
121
3.19059
135
3.19065
95
3.1907
117
3.19075
112
3.19081
129
3.19086
119
3.19091
122
3.19097
123
3.19102
138
3.19107
141
3.19113
108
3.19118
120
3.19123
136
3.19129
127
3.19134
112
3.19139
106
3.19144
124
3.1915
133
3.19155
125
3.1916
133
3.19166
113
3.19171
126
3.19176
131
3.19182
131
3.19187
129
3.19192
126
3.19198
end of experiment
